File: Baseline4Data/Baseline4Chronology.csv
cycle_number,max_stress,start_stress,stress_change,capacity_start_mAhg,capacity_end_mAhg,charge_current
1,NaN,NaN,NaN,226.83,249.465,-0.448533
2,NaN,NaN,NaN,192.026,209.991,-0.448531
3,-0.840472,-0.0295874,-0.810884,43.4666,177.236,-7.19807
4,-0.534013,0.124839,-0.658852,41.2943,167.409,-7.19816
5,-0.174051,0.344087,-0.518138,35.6483,157.455,-7.19812
6,NaN,NaN,NaN,30.4273,148.612,-7.19813
7,NaN,NaN,NaN,27.6498,27.6498,-7.19807
8,0.433604,0.645745,-0.212141,26.0804,26.1708,-7.19808
9,0.514186,0.667485,-0.153299,24.8727,24.8727,-7.19812
10,0.566838,0.744267,-0.177428,23.7971,23.7971,-7.19813
11,-1.43803,0.912943,-2.35097,136.193,148.108,-0.448613
12,-0.393567,0.0118843,-0.405451,66.2744,139.252,-3.59852
13,NaN,-0.0252968,NaN,65.1909,136.303,-3.59851
14,NaN,NaN,NaN,61.3875,135.107,-3.59851
15,-0.428538,NaN,NaN,59.759,132.964,-3.5985
16,NaN,-0.0525888,NaN,128.888,136.445,-0.359293
17,-0.572491,-0.0807513,-0.49174,58.6711,59.1004,-3.59854
18,-0.587412,-0.0714586,-0.515953,57.0414,57.2488,-3.59849
19,-0.610616,-0.113211,-0.497406,54.8683,55.1445,-3.59851
20,-0.690053,-0.135682,-0.554371,52.6957,53.1668,-3.59853
21,-2.51877,-0.176858,-2.34191,124.879,132.763,-0.359387
22,-0.716882,-0.219472,-0.49741,52.6952,74.5674,-3.59851
23,-0.829685,-0.300688,-0.528997,51.0666,70.0615,-3.59851
24,-0.834179,-0.313629,-0.52055,47.8068,63.79,-3.59848
25,-2.63073,-0.314529,-2.3162,120.376,127.802,-0.359362
26,-0.511094,-0.37393,-0.137163,16.8257,122.893,-7.19804
27,-0.583727,NaN,NaN,16.5495,121.052,-7.19806
28,NaN,NaN,NaN,15.7618,119.189,-7.19806
29,NaN,NaN,NaN,15.142,117.545,-7.19809
30,NaN,-0.448272,NaN,111.365,117.283,-0.359346
31,NaN,NaN,NaN,41.8296,120.634,-3.59842
32,-0.751093,-0.349775,-0.401318,40.2002,118.069,-3.59845
33,NaN,NaN,NaN,38.0272,115.867,-3.59847
34,NaN,NaN,NaN,35.8542,113.996,-3.59846
35,-2.38868,-0.641547,-1.74713,103.006,108.803,-0.359299
36,NaN,NaN,NaN,11.9534,13.792,-7.19808
37,0.474973,0.621964,-0.146991,11.9534,13.415,-7.19808
38,0.581757,0.715908,-0.134151,11.9534,13.2384,-7.19807
39,0.691045,0.75348,-0.0624352,10.8668,13.0604,-7.19811
40,0.345976,0.805236,-0.45926,29.8792,105.191,-3.5985
41,NaN,NaN,NaN,29.3356,102.865,-3.59844
42,NaN,NaN,NaN,27.1624,101.404,-3.59841
43,NaN,NaN,NaN,24.9895,100.11,-3.59842
44,1.13533,1.43804,-0.302711,23.36,98.8379,-3.59846