File: BaselineB3Data/BaselineB3Chronology.csv
cycle_number,max_stress,start_stress,stress_change,capacity_start_mAhg,capacity_end_mAhg,charge_current,c_rate
1,-0.12439,2.80782,-2.93221,285.502,303.229,-0.399111,0.08
2,1.79116,NaN,NaN,251.546,266.05,-0.399057,0.08
3,4.55929,5.44241,-0.883117,45.4521,235.115,-9.59687,2
4,3.71562,4.9275,-1.21188,54.2195,225.262,-9.59689,2
5,NaN,NaN,NaN,51.4811,219.293,-9.59684,2
6,NaN,NaN,NaN,48.5393,48.7309,-9.59685,2
7,NaN,NaN,NaN,41.1848,41.3848,-9.59687,2
8,2.89903,4.72377,-1.82474,33.1917,33.1917,-9.59688,2
9,2.3062,3.83236,-1.52616,29.8246,29.8246,-9.59687,2
10,1.61405,3.0157,-1.40165,27.7984,27.7984,-9.59686,2
11,-0.75273,2.35434,-3.10707,192.412,210.487,-0.959054,0.2
12,NaN,NaN,NaN,100.006,198.424,-4.79777,1
13,2.2771,5.53551,-3.25841,91.9177,190.371,-4.79777,1
14,2.99708,5.51743,-2.52035,86.0349,183.571,-4.79774,1
15,NaN,NaN,NaN,83.0936,83.1306,-4.79776,1
16,NaN,NaN,NaN,72.0638,72.5392,-4.79777,1
17,NaN,NaN,NaN,65.4457,65.6229,-4.79778,1
18,2.8596,5.15816,-2.29856,60.2982,172.694,-4.79775,1
19,3.87817,NaN,NaN,72.0635,168.188,-4.79776,1
20,4.23522,6.10495,-1.86972,69.1223,164.011,-4.79777,1
21,NaN,NaN,NaN,135.07,161.46,-1.99837,0.42
22,3.69078,6.5061,-2.81532,129.556,156.899,-1.99835,0.42
23,4.34978,6.55081,-2.20103,124.043,152.343,-1.99833,0.42
24,-5.33571,-0.0111269,-5.32458,161.406,176.434,-0.399099,0.08
25,-5.07239,0.252608,-5.325,118.477,134.952,-0.959076,0.2
26,-3.987,0.438877,-4.42588,112.012,127.243,-0.959111,0.2
27,-1.15798,0.657268,-1.81524,67.6472,116.696,-2.39875,0.5
28,NaN,NaN,NaN,54.7786,109.955,-2.39873,0.5
29,0.27214,0.803084,-0.530945,46.6907,103.866,-2.39874,0.5
30,0.839104,0.849993,-0.0108889,40.0733,40.4754,-2.39875,0.5
31,0.683064,0.807246,-0.124182,36.0292,36.167,-2.39875,0.5
32,0.535949,1.01002,-0.474073,32.3528,32.5866,-2.39874,0.5
33,0.507622,0.990958,-0.483336,29.779,30.0467,-2.39875,0.5
34,0.559896,1.10326,-0.543368,27.5733,27.7669,-2.39877,0.5
35,0.0167438,1.14941,-1.13267,69.9721,93.341,-0.959137,0.2
36,NaN,NaN,NaN,10.5512,79.4933,-4.79781,1
37,NaN,NaN,NaN,9.66421,75.9791,-4.7978,1
38,NaN,NaN,NaN,8.82419,72.625,-4.79785,1
39,NaN,NaN,NaN,8.00346,8.00346,-4.79783,1
40,NaN,NaN,NaN,7.64286,7.64286,-4.79783,1
41,1.68248,1.74079,-0.0583049,7.45379,7.45379,-4.79783,1
42,1.69055,1.73928,-0.0487269,7.33039,68.471,-4.79781,1
43,1.8632,1.93327,-0.0700647,6.98979,64.8459,-4.7978,1
44,NaN,NaN,NaN,6.52701,62.3315,-4.79782,1
45,NaN,NaN,NaN,15.9271,61.3342,-1.99842,0.42
46,NaN,NaN,NaN,14.3379,58.5097,-1.99839,0.42
47,NaN,NaN,NaN,12.8641,56.5998,-1.99838,0.42