File: Pattern6Data/3_28_22_pattern6run6_C13_I.mpt
EC-Lab ASCII FILE
Nb header lines : 67

Galvanostatic Cycling with Potential Limitation

Run on channel : 13 (SN 21786)
User :
CE vs. WE compliance from -10 V to 10 V
Electrode connection : standard
Ewe ctrl range : min = -5.00 V, max = 5.00 V
Safety Limits :
	Do not start on E overload
Acquisition started on : 03/28/2022 13:53:29
Technique started on : 03/28/2022 13:53:38
Saved on :
	File : 3_28_22_pattern6run6_C13.mpr
	Directory : E:\Catherine\
	Host : 192.109.209.129
Device : VMP3 (SN 0960)
Address : USB
EC-Lab for windows v11.17 (software)
Internet server v11.16 (firmware)
Command interpretor v11.16 (firmware)
Electrode material :
Initial state :
Electrolyte :
Comments :
Electrode surface area : 1.400 cm²
Characteristic mass : 5.290 g
Equivalent Weight : 0.000 g/eq.
Density : 0.000 g/cm3
Cycle Definition : Charge/Discharge alternance
Ns                  0                   1                   2                   3                   4
Set I/C             I                   I                   I                   I                   I
Is                  0.000               -1.400              1.400               -8.400              1.400
unit Is             mA                  mA                  mA                  mA                  mA
vs.                 <None>              <None>              <None>              <None>              <None>
N                   1.00                1.00                1.00                1.00                1.00
I sign              > 0                 > 0                 > 0                 > 0                 > 0
t1 (h:m:s)          0:00:0.0000         40:00:0.0000        40:00:0.0000        40:00:0.0000        40:00:0.0000
I Range             10 mA               10 mA               10 mA               10 mA               10 mA
Bandwidth           5                   5                   5                   5                   5
dE1 (mV)            0.00                0.00                0.00                0.00                0.00
dt1 (s)             0.0000              10.0000             10.0000             10.0000             10.0000
EM (V)              0.000               0.010               1.500               -0.050              1.500
tM (h:m:s)          0:00:0.0000         2:00:0.0000         2:00:0.0000         2:00:0.0000         2:00:0.0000
Im                  0.000               0.000               0.000               0.000               0.000
unit Im             mA                  mA                  mA                  mA                  mA
dI/dt               0.000               0.000               0.000               0.000               0.000
dunit dI/dt         mA/s                mA/s                mA/s                mA/s                mA/s
E range min (V)     -5.000              -5.000              -5.000              -5.000              -5.000
E range max (V)     5.000               5.000               5.000               5.000               5.000
dq                  0.000               0.000               0.000               0.000               0.000
unit dq             A.h                 A.h                 A.h                 A.h                 A.h
dtq (s)             0.0000              10.0000             10.0000             10.0000             10.0000
dQM                 0.000               0.000               0.000               0.000               0.000
unit dQM            mA.h                mA.h                mA.h                mA.h                mA.h
dxM                 0.000               0.000               0.000               0.000               0.000
tR (h:m:s)          0:00:0.0000         0:00:0.0000         0:00:0.0000         0:00:0.0000         0:00:0.0000
dER/dt (mV/h)       0.0                 0.0                 0.0                 0.0                 0.0
dER (mV)            0.00                0.00                0.00                0.00                0.00
dtR (s)             60.0000             120.0000            120.0000            120.0000            120.0000
EL (V)              pass                3.500               3.500               3.500               3.500
goto Ns'            0                   0                   0                   0                   4
nc cycles           0                   0                   0                   0                   2

mode	ox/red	error	control changes	Ns changes	counter inc.	Ns	time/s	dq/mA.h	(Q-Qo)/mA.h	control/V/mA	Ewe/V	Q charge/discharge/mA.h	half cycle	Energy charge/W.h	Energy discharge/W.h	Capacitance charge/µF	Capacitance discharge/µF	<I>/mA	Q discharge/mA.h	Q charge/mA.h	Capacity/mA.h	Efficiency/%	control/V	control/mA	cycle number	P/W
1	0	0	1	1	0	1	9.9994	-0.00387069	-0.00387069	-1.4	0.684048	-0.00387069	0	0.000000000000000E+000	-2.64774e-06	0.000000000000000E+000	0.000000000000000E+000	-1.39353	0.00387069	0.000000000000000E+000	0.00387069	0	0	-1.4	0.000000000000000E+000	-0.000953242
2	1	0	0	0	0	1	1215.68	-0.00248931	-0.445804	0.010023	0.00904675	-0.445804	0	0.000000000000000E+000	-2.88293e-05	0.000000000000000E+000	2.37762e+06	-0.896153	0.445804	0.000000000000000E+000	0.445804	0	0.010023	0	0.000000000000000E+000	-8.10727e-06
2	1	0	0	0	0	1	2425.68	-0.000638271	-0.600434	0.010023	0.00889404	-0.600434	0	0.000000000000000E+000	-3.02177e-05	0.000000000000000E+000	3.20158e+06	-0.229778	0.600434	0.000000000000000E+000	0.600434	0	0.010023	0	0.000000000000000E+000	-2.04365e-06
2	1	0	0	0	0	1	3635.68	-0.000333958	-0.654644	0.010023	0.00898948	-0.654644	0	0.000000000000000E+000	-3.07042e-05	0.000000000000000E+000	3.49113e+06	-0.120225	0.654644	0.000000000000000E+000	0.654644	0	0.010023	0	0.000000000000000E+000	-1.08076e-06
2	1	0	0	0	0	1	4845.68	-0.000224021	-0.687394	0.010023	0.00891313	-0.687394	0	0.000000000000000E+000	-3.09982e-05	0.000000000000000E+000	3.66537e+06	-0.0806475	0.687394	0.000000000000000E+000	0.687394	0	0.010023	0	0.000000000000000E+000	-7.18822e-07
2	1	0	0	0	0	1	6055.68	-0.000175185	-0.711146	0.010023	0.00904675	-0.711146	0	0.000000000000000E+000	-3.12117e-05	0.000000000000000E+000	3.79277e+06	-0.0630666	0.711146	0.000000000000000E+000	0.711146	0	0.010023	0	0.000000000000000E+000	-5.70548e-07
2	1	0	0	0	0	1	7265.68	-0.000141324	-0.730016	0.010023	0.00891313	-0.730016	0	0.000000000000000E+000	-3.13813e-05	0.000000000000000E+000	3.89264e+06	-0.0508765	0.730016	0.000000000000000E+000	0.730016	0	0.010023	0	0.000000000000000E+000	-4.53469e-07
1	1	0	1	0	0	2	8465.68	0.00388722	-0.577271	1.4	0.195814	0.163262	2	2.68262e-05	0.000000000000000E+000	5.08741e+06	0.000000000000000E+000	1.3994	0.000000000000000E+000	0.163262	0.163262	0	0	1.4	1	0.000274022
2	1	0	0	0	0	2	9670.9	0.000602591	-0.167648	1.49992	1.4989	0.572886	2	0.000205049	0.000000000000000E+000	1.45381e+06	0.000000000000000E+000	0.216933	0.000000000000000E+000	0.572886	0.572886	0	1.49992	0	1	0.00032516
2	1	0	0	0	0	2	10880.9	7.29916e-05	-0.145248	1.49992	1.49882	0.595285	2	0.000238623	0.000000000000000E+000	1.51073e+06	0.000000000000000E+000	0.026277	0.000000000000000E+000	0.595285	0.595285	0	1.49992	0	1	3.93844e-05
2	1	0	0	0	0	2	12090.9	3.08421e-05	-0.139625	1.49992	1.49895	0.600909	2	0.000247053	0.000000000000000E+000	1.52486e+06	0.000000000000000E+000	0.0111032	0.000000000000000E+000	0.600909	0.600909	0	1.49992	0	1	1.66431e-05
2	1	0	0	0	0	2	13300.9	1.50998e-05	-0.137047	1.49992	1.49909	0.603487	2	0.000250917	0.000000000000000E+000	1.53126e+06	0.000000000000000E+000	0.00543591	0.000000000000000E+000	0.603487	0.603487	0	1.49992	0	1	8.1489e-06
2	1	0	0	0	0	2	14510.9	6.70869e-06	-0.135856	1.49992	1.49905	0.604678	2	0.000252703	0.000000000000000E+000	1.53432e+06	0.000000000000000E+000	0.00241513	0.000000000000000E+000	0.604678	0.604678	0	1.49992	0	1	3.6204e-06
2	1	0	0	0	0	2	15720.9	7.60569e-06	-0.135215	1.49992	1.49888	0.605319	2	0.000253663	0.000000000000000E+000	1.53613e+06	0.000000000000000E+000	0.00273805	0.000000000000000E+000	0.605319	0.605319	0	1.49992	0	1	4.104e-06
2	1	0	0	0	0	3	16920.1	-0.00893694	-0.455553	-0.0499729	-0.0510276	-0.320514	3	0.000254112	1.61494e-05	1.53679e+06	744688	-3.2173	0.320514	0.000000000000000E+000	0.320514	0	-0.0499729	0	1	0.000164171
2	1	0	0	0	0	3	18130.1	-0.00668604	-1.24502	-0.0499729	-0.0510658	-1.10998	3	0.000254112	5.64338e-05	1.53679e+06	2.57818e+06	-2.40697	1.10998	0.000000000000000E+000	1.10998	0	-0.0499729	0	1	0.000122914
2	1	0	0	0	0	3	19340.1	-0.00750623	-2.1155	-0.0499729	-0.0510467	-1.98046	3	0.000254112	0.000100851	1.53679e+06	4.5999e+06	-2.70224	1.98046	0.000000000000000E+000	1.98046	0	-0.0499729	0	1	0.000137941
2	1	0	0	0	0	3	20550.1	-0.00780804	-3.0437	-0.0499729	-0.0509894	-2.90866	3	0.000254112	0.000148216	1.53679e+06	6.75589e+06	-2.81089	2.90866	0.000000000000000E+000	2.90866	0	-0.0499729	0	1	0.000143326
2	1	0	0	0	0	3	21760.1	-0.00799605	-3.99979	-0.0499729	-0.051104	-3.86475	3	0.000254112	0.000197002	1.53679e+06	8.97583e+06	-2.87858	3.86475	0.000000000000000E+000	3.86475	0	-0.0499729	0	1	0.000147107
2	1	0	0	0	0	3	22970.1	-0.00819749	-4.97946	-0.0499729	-0.0510276	-4.84442	3	0.000254112	0.000246994	1.53679e+06	1.12516e+07	-2.95109	4.84442	0.000000000000000E+000	4.84442	0	-0.0499729	0	1	0.000150587
1	1	0	1	0	0	4	24170.1	0.00388718	-5.58225	1.4	0.0235894	0.124389	4	2.23002e-06	0.000000000000000E+000	2.01876e+07	0.000000000000000E+000	1.39938	0.000000000000000E+000	0.124389	0.124389	0	0	1.4	2	3.30107e-05
1	1	0	1	0	0	4	25380.1	0.00388723	-5.1119	1.4	0.0271783	0.594739	4	1.46014e-05	0.000000000000000E+000	8.30812e+07	0.000000000000000E+000	1.3994	0.000000000000000E+000	0.594739	0.594739	0	0	1.4	2	3.80334e-05
1	1	0	1	0	0	4	26590.1	0.00388719	-4.64154	1.4	0.0278273	1.06509	4	2.75572e-05	0.000000000000000E+000	1.45131e+08	0.000000000000000E+000	1.39939	0.000000000000000E+000	1.06509	1.06509	0	0	1.4	2	3.89412e-05
1	1	0	1	0	0	4	27800.1	0.00388723	-4.17118	1.4	0.0285336	1.53545	4	4.08149e-05	0.000000000000000E+000	2.03776e+08	0.000000000000000E+000	1.3994	0.000000000000000E+000	1.53545	1.53545	0	0	1.4	2	3.993e-05
1	1	0	1	0	0	4	29010.1	0.00388721	-3.70082	1.4	0.0293163	2.00581	4	5.44193e-05	0.000000000000000E+000	2.58733e+08	0.000000000000000E+000	1.39939	0.000000000000000E+000	2.00581	2.00581	0	0	1.4	2	4.1025e-05
1	1	0	1	0	0	4	30220.1	0.00388725	-3.23047	1.4	0.030748	2.47617	4	6.85227e-05	0.000000000000000E+000	3.0382e+08	0.000000000000000E+000	1.39941	0.000000000000000E+000	2.47617	2.47617	0	0	1.4	2	4.3029e-05
1	1	0	1	0	0	4	31430.1	0.00388716	-2.76012	1.4	0.0338595	2.94652	4	8.36384e-05	0.000000000000000E+000	3.26866e+08	0.000000000000000E+000	1.39938	0.000000000000000E+000	2.94652	2.94652	0	0	1.4	2	4.73823e-05
1	1	0	1	0	0	4	32640.1	0.0038872	-2.28976	1.4	0.048272	3.41687	4	0.000101771	0.000000000000000E+000	2.62474e+08	0.000000000000000E+000	1.39939	0.000000000000000E+000	3.41687	3.41687	0	0	1.4	2	6.75515e-05
1	1	0	1	0	0	4	33850.1	0.00388725	-1.81941	1.4	0.255678	3.88722	4	0.000164807	0.000000000000000E+000	5.50358e+07	0.000000000000000E+000	1.39941	0.000000000000000E+000	3.88722	3.88722	0	0	1.4	2	0.000357799
2	1	0	0	0	0	4	35058.1	0.000275329	-1.53586	1.49992	1.49905	4.17077	4	0.000372135	0.000000000000000E+000	1.00256e+07	0.000000000000000E+000	0.0991183	0.000000000000000E+000	4.17077	4.17077	0	1.49992	0	2	0.000148583
2	1	0	0	0	0	4	36268.1	8.97504e-05	-1.51847	1.49992	1.49905	4.18816	4	0.000398203	0.000000000000000E+000	1.00674e+07	0.000000000000000E+000	0.0323101	0.000000000000000E+000	4.18816	4.18816	0	1.49992	0	2	4.84344e-05
2	1	0	0	0	0	4	37478.1	7.95664e-05	-1.51055	1.49992	1.49893	4.19609	4	0.000410077	0.000000000000000E+000	1.00872e+07	0.000000000000000E+000	0.0286439	0.000000000000000E+000	4.19609	4.19609	0	1.49992	0	2	4.29353e-05
2	1	0	0	0	0	4	38688.1	3.21265e-05	-1.50576	1.49992	1.49897	4.20088	4	0.00041726	0.000000000000000E+000	1.00985e+07	0.000000000000000E+000	0.0115655	0.000000000000000E+000	4.20088	4.20088	0	1.49992	0	2	1.73364e-05
2	1	0	0	0	0	4	39898.1	2.5045e-05	-1.50235	1.49992	1.49901	4.20428	4	0.000422359	0.000000000000000E+000	1.01064e+07	0.000000000000000E+000	0.00901621	0.000000000000000E+000	4.20428	4.20428	0	1.49992	0	2	1.35154e-05
2	1	0	0	0	0	4	41108.1	2.0343e-05	-1.49962	1.49992	1.49893	4.20702	4	0.000426466	0.000000000000000E+000	1.01135e+07	0.000000000000000E+000	0.00732348	0.000000000000000E+000	4.20702	4.20702	0	1.49992	0	2	1.09774e-05
2	1	0	0	0	1	4	42298.1	1.69529e-05	-1.49741	1.49992	1.49873	4.20922	4	0.000429764	0.000000000000000E+000	1.01202e+07	0.000000000000000E+000	0.00610305	0.000000000000000E+000	4.20922	4.20922	0	1.49992	0	2	9.14681e-06
2	1	0	0	0	1	4	43508.1	1.44943e-05	-1.49555	1.49992	1.49876	4.21109	4	0.000432566	0.000000000000000E+000	1.01245e+07	0.000000000000000E+000	0.00521796	0.000000000000000E+000	4.21109	4.21109	0	1.49992	0	2	7.8205e-06
2	1	0	0	0	1	4	44718.1	1.26952e-05	-1.49387	1.49992	1.49878	4.21276	4	0.000435072	0.000000000000000E+000	1.01283e+07	0.000000000000000E+000	0.00457027	0.000000000000000E+000	4.21276	4.21276	0	1.49992	0	2	6.84985e-06
2	1	0	0	0	1	4	45928.1	1.09462e-05	-1.49241	1.49992	1.49869	4.21422	4	0.000437258	0.000000000000000E+000	1.01325e+07	0.000000000000000E+000	0.00394062	0.000000000000000E+000	4.21422	4.21422	0	1.49992	0	2	5.90576e-06
2	1	0	0	0	1	4	47138.1	9.57494e-06	-1.49116	1.49992	1.49875	4.21548	4	0.000439141	0.000000000000000E+000	1.01351e+07	0.000000000000000E+000	0.00344698	0.000000000000000E+000	4.21548	4.21548	0	1.49992	0	2	5.16615e-06
2	1	0	0	0	1	4	48348.1	8.77606e-06	-1.49006	1.49992	1.49873	4.21658	4	0.000440791	0.000000000000000E+000	1.01379e+07	0.000000000000000E+000	0.00315938	0.000000000000000E+000	4.21658	4.21658	0	1.49992	0	2	4.73505e-06
2	1	0	0	0	0	4	49538.1	8.16572e-06	-1.48904	1.49992	1.49871	4.21759	4	0.000442313	0.000000000000000E+000	1.01405e+07	0.000000000000000E+000	0.00293966	0.000000000000000E+000	4.21759	4.21759	0	1.49992	0	2	4.40569e-06
2	1	0	0	0	0	4	50748.1	7.56132e-06	-1.48809	1.49992	1.49871	4.21855	4	0.000443742	0.000000000000000E+000	1.01428e+07	0.000000000000000E+000	0.00272207	0.000000000000000E+000	4.21855	4.21855	0	1.49992	0	2	4.07959e-06
2	1	0	0	0	0	4	51958.1	6.80546e-06	-1.48721	1.49992	1.49884	4.21942	4	0.000445055	0.000000000000000E+000	1.0144e+07	0.000000000000000E+000	0.00244997	0.000000000000000E+000	4.21942	4.21942	0	1.49992	0	2	3.67211e-06
2	1	0	0	0	0	4	53168.1	7.03605e-06	-1.48639	1.49992	1.49878	4.22024	4	0.000446283	0.000000000000000E+000	1.01463e+07	0.000000000000000E+000	0.00253298	0.000000000000000E+000	4.22024	4.22024	0	1.49992	0	2	3.79638e-06
2	1	0	0	0	0	4	54378.1	5.4556e-06	-1.48554	1.49992	1.49875	4.22109	4	0.00044756	0.000000000000000E+000	1.01486e+07	0.000000000000000E+000	0.00196401	0.000000000000000E+000	4.22109	4.22109	0	1.49992	0	2	2.94356e-06
2	1	0	0	0	0	4	55588.1	5.52333e-06	-1.48486	1.49992	1.4988	4.22177	4	0.000448577	0.000000000000000E+000	1.01499e+07	0.000000000000000E+000	0.0019884	0.000000000000000E+000	4.22177	4.22177	0	1.49992	0	2	2.98022e-06
2	1	0	0	0	0	4	55998.1	5.2252e-06	-1.48464	1.49992	1.49878	4.22199	4	0.000448903	0.000000000000000E+000	1.01505e+07	0.000000000000000E+000	0.00188103	0.000000000000000E+000	4.22199	4.22199	0	1.49992	0	2	2.81926e-06