File: Pattern6Data/Pattern6Chronology.csv
cycle_number,max_stress,start_stress,stress_change,capacity_start_mAhg,capacity_end_mAhg,charge_current
1,NaN,NaN,NaN,318.032,330.443,-0.345263
2,NaN,NaN,NaN,303.617,314.252,-0.345275
3,NaN,NaN,NaN,289.955,299.468,-0.345415
4,NaN,NaN,NaN,128.634,282.679,-8.39619
5,NaN,NaN,NaN,111.223,276.034,-8.39652
6,0.16112,-0.59559,0.756711,114.496,272.498,-8.39662
7,0.362302,-0.0805155,0.442817,119.402,119.513,-8.39662
8,0.194611,-0.0392056,0.233816,117.767,118.361,-8.39668
9,-0.140965,0.122934,-0.263899,119.315,119.315,-8.39666
10,-1.70421,0.0793943,-1.7836,259.314,267.011,-0.345325
11,-3.5112,-0.0410439,-3.47016,252.597,260.538,-0.350528
12,-4.46807,0.840586,-5.30866,245.672,253.216,-0.350418
13,-1.89186,1.32122,-3.21308,109.627,237.339,-8.39974
14,-1.50797,0.181771,-1.68974,101.447,230.066,-8.39985
15,-1.67883,-0.0957089,-1.58312,98.1742,224.481,-8.39981
16,-1.7734,-0.329602,-1.4438,96.5387,96.8549,-8.39986
17,-2.00108,-0.60895,-1.39213,91.6299,92.0321,-8.39987
18,-2.42724,-0.777841,-1.64939,89.996,90.9262,-8.3999
19,-5.47154,-0.989976,-4.48156,210.626,218.369,-0.350345
20,-5.48615,-0.569314,-4.91684,200.753,208.746,-0.350305
21,-3.43238,-0.8548,-2.57758,146.457,200.328,-4.20028
22,-4.41284,-0.636624,-3.77621,144.003,190.632,-4.20029
23,-4.36292,-0.636146,-3.72677,141.552,186.069,-4.2003
24,-4.37053,-0.629667,-3.74087,138.284,139.239,-4.20049
25,-4.36232,-0.707942,-3.65438,135.012,179.623,-4.20053
26,-4.29789,-0.52238,-3.77551,131.738,132.188,-4.20053
27,-4.3256,-0.770219,-3.55538,128.441,128.441,-4.20049
28,-4.12712,-0.878118,-3.249,123.554,124.218,-4.20053
29,-2.83759,-0.994604,-1.84299,50.7262,696.271,-8.40029
30,NaN,NaN,NaN,19.6358,615.619,-8.40031
31,NaN,NaN,NaN,4.90882,522.777,-8.40031
32,-1.85313,-0.558539,-1.29459,22.914,51.9308,-1.40051
33,-1.0255,-1.0255,0,1.50604,390.715,-6.74464